Fichero De Datos De SpectraSuite
++++++++++++++++++++++++++++++++++++
Fecha: Tue Jun 28 11:21:40 CLT 2016
Usuario: Paulina Naranjo
Presente Oscuro Del Espectro: No
La Referencia de Presente Del Espectro De: No
Muestreados de los componentes de Número de espectros: 1
Espectrómetros: HR4C471
Tiempo de integración (usec): 700000 (HR4C471)
Promedio de Espectros Hechos un: 2 (HR4C471)
El Alisar Del Furgón: 3 (HR4C471)
Párrafo de de Corregir del la del del de Eléctrica del obscuridad: No (HR4C471)
Estrobo/Lámpara Permitido: No (HR4C471)
Correct for Detector Non-linearity: No (HR4C471)
Párrafo de de Corregir del la del del de Externa del luz: No (HR4C471)
Procesado del espectro de Número de pixeles en: 3648
>>>>> Comienza Data<<<<< Espectral Procesado Del EL
195.96	428.50
196.22	428.50
196.49	428.50
196.76	722.43
197.03	812.29
197.30	890.50
197.57	1017.00
197.84	1134.36
198.11	1188.14
198.38	1124.29
198.65	1155.93
198.91	1199.14
199.18	1211.57
199.45	1170.50
199.72	1212.07
199.99	1256.64
200.26	1281.64
200.53	1222.36
200.80	1281.71
201.07	1341.29
201.34	1358.50
201.60	1306.71
201.87	1353.07
202.14	1368.64
202.41	1375.50
202.68	1289.43
202.95	1304.79
203.22	1335.79
203.49	1348.86
203.76	1269.07
204.02	1322.64
204.29	1353.50
204.56	1349.07
204.83	1278.00
205.10	1302.21
205.37	1316.64
205.64	1314.00
205.91	1239.14
206.17	1284.36
206.44	1317.36
206.71	1325.57
206.98	1264.71
207.25	1303.00
207.52	1340.07
207.79	1345.93
208.06	1293.79
208.32	1350.00
208.59	1380.71
208.86	1379.64
209.13	1313.71
209.40	1356.86
209.67	1386.29
209.94	1376.50
210.21	1293.43
210.47	1330.21
210.74	1361.21
211.01	1365.57
211.28	1289.07
211.55	1328.57
211.82	1355.21
212.09	1349.79
212.35	1274.50
212.62	1321.64
212.89	1354.43
213.16	1348.21
213.43	1276.14
213.70	1318.93
213.97	1356.00
214.23	1378.50
214.50	1319.93
214.77	1369.00
215.04	1411.79
215.31	1413.86
215.58	1345.57
215.85	1385.50
216.11	1402.93
216.38	1381.71
216.65	1307.57
216.92	1335.86
217.19	1348.86
217.46	1337.43
217.72	1253.07
217.99	1266.29
218.26	1307.29
218.53	1296.79
218.80	1239.14
219.07	1295.00
219.33	1319.71
219.60	1334.93
219.87	1292.14
220.14	1322.71
220.41	1357.36
220.68	1353.29
220.95	1297.71
221.21	1355.14
221.48	1372.07
221.75	1365.86
222.02	1302.36
222.29	1341.14
222.55	1363.79
222.82	1342.21
223.09	1256.86
223.36	1301.29
223.63	1321.57
223.90	1318.64
224.16	1247.07
224.43	1298.14
224.70	1332.79
224.97	1341.21
225.24	1267.86
225.51	1329.64
225.77	1380.64
226.04	1385.57
226.31	1312.43
226.58	1345.07
226.85	1358.57
227.11	1361.07
227.38	1279.86
227.65	1293.71
227.92	1319.71
228.19	1323.43
228.46	1252.21
228.72	1301.36
228.99	1322.57
229.26	1311.07
229.53	1246.00
229.80	1286.14
230.06	1315.93
230.33	1314.07
230.60	1237.07
230.87	1289.57
231.14	1339.79
231.40	1344.29
231.67	1274.43
231.94	1304.79
232.21	1340.00
232.48	1342.93
232.74	1265.14
233.01	1287.43
233.28	1324.57
233.55	1339.29
233.82	1271.64
234.08	1292.21
234.35	1329.07
234.62	1343.79
234.89	1280.07
235.15	1296.64
235.42	1309.36
235.69	1316.57
235.96	1270.79
236.23	1300.21
236.49	1313.21
236.76	1316.57
237.03	1258.86
237.30	1286.00
237.57	1315.57
237.83	1321.93
238.10	1257.21
238.37	1283.29
238.64	1309.14
238.90	1308.36
239.17	1254.07
239.44	1278.86
239.71	1293.71
239.98	1306.36
240.24	1267.14
240.51	1310.21
240.78	1345.57
241.05	1341.14
241.31	1275.71
241.58	1307.50
241.85	1326.86
242.12	1332.79
242.38	1262.79
242.65	1285.86
242.92	1322.14
243.19	1339.79
243.46	1285.57
243.72	1330.07
243.99	1341.86
244.26	1340.50
244.53	1290.14
244.79	1328.43
245.06	1339.71
245.33	1340.93
245.60	1259.29
245.86	1290.50
246.13	1316.93
246.40	1300.29
246.67	1227.36
246.93	1265.29
247.20	1292.57
247.47	1315.14
247.74	1257.93
248.00	1285.43
248.27	1323.07
248.54	1328.43
248.81	1273.21
249.07	1315.57
249.34	1328.57
249.61	1340.64
249.88	1290.86
250.14	1315.43
250.41	1335.71
250.68	1338.79
250.95	1273.07
251.21	1318.14
251.48	1334.71
251.75	1336.07
252.02	1292.64
252.28	1339.93
252.55	1359.86
252.82	1334.50
253.08	1248.86
253.35	1290.14
253.62	1335.29
253.89	1338.43
254.15	1257.21
254.42	1279.79
254.69	1325.29
254.96	1336.93
255.22	1261.14
255.49	1273.71
255.76	1298.71
256.02	1319.64
256.29	1268.43
256.56	1298.43
256.83	1325.93
257.09	1336.71
257.36	1283.36
257.63	1299.79
257.90	1301.93
258.16	1310.71
258.43	1258.79
258.70	1306.64
258.96	1322.57
259.23	1318.57
259.50	1267.14
259.77	1314.64
260.03	1331.71
260.30	1319.86
260.57	1242.29
260.83	1278.07
261.10	1300.36
261.37	1290.50
261.64	1225.29
261.90	1269.00
262.17	1308.57
262.44	1313.21
262.70	1254.50
262.97	1303.43
263.24	1337.50
263.50	1346.79
263.77	1286.21
264.04	1313.07
264.31	1333.43
264.57	1337.64
264.84	1254.14
265.11	1272.00
265.37	1298.14
265.64	1303.14
265.91	1250.64
266.17	1302.71
266.44	1329.00
266.71	1344.43
266.97	1297.07
267.24	1314.29
267.51	1324.79
267.78	1321.71
268.04	1249.29
268.31	1287.93
268.58	1293.93
268.84	1294.79
269.11	1240.71
269.38	1271.79
269.64	1288.43
269.91	1286.36
270.18	1216.14
270.44	1279.43
270.71	1314.93
270.98	1324.00
271.24	1263.64
271.51	1302.93
271.78	1338.29
272.04	1357.79
272.31	1281.21
272.58	1305.14
272.84	1320.07
273.11	1332.43
273.38	1275.29
273.64	1296.14
273.91	1304.79
274.18	1319.07
274.44	1278.64
274.71	1330.00
274.98	1355.43
275.24	1363.29
275.51	1301.36
275.78	1327.50
276.04	1342.00
276.31	1321.14
276.58	1261.86
276.84	1294.43
277.11	1304.36
277.38	1311.00
277.64	1267.14
277.91	1294.57
278.18	1331.00
278.44	1334.14
278.71	1281.29
278.98	1310.14
279.24	1322.36
279.51	1309.86
279.78	1263.71
280.04	1307.36
280.31	1315.43
280.58	1312.00
280.84	1249.71
281.11	1275.57
281.37	1291.21
281.64	1273.93
281.91	1197.64
282.17	1227.14
282.44	1243.86
282.71	1262.07
282.97	1214.29
283.24	1240.93
283.51	1268.64
283.77	1270.64
284.04	1215.71
284.31	1244.71
284.57	1273.36
284.84	1290.93
285.10	1258.79
285.37	1294.71
285.64	1323.86
285.90	1346.64
286.17	1301.29
286.44	1319.36
286.70	1328.43
286.97	1330.93
287.23	1280.64
287.50	1308.29
287.77	1308.79
288.03	1296.07
288.30	1243.93
288.57	1287.36
288.83	1311.29
289.10	1308.57
289.36	1248.21
289.63	1280.50
289.90	1307.57
290.16	1312.43
290.43	1239.86
290.70	1256.64
290.96	1281.00
291.23	1293.79
291.49	1241.36
291.76	1264.71
292.03	1283.86
292.29	1298.21
292.56	1246.57
292.82	1273.93
293.09	1291.64
293.36	1311.57
293.62	1269.43
293.89	1306.64
294.15	1321.29
294.42	1321.86
294.69	1265.71
294.95	1282.50
295.22	1290.14
295.48	1313.93
295.75	1264.36
296.02	1299.14
296.28	1314.86
296.55	1328.14
296.81	1297.14
297.08	1326.79
297.35	1319.07
297.61	1313.86
297.88	1255.93
298.14	1288.07
298.41	1294.43
298.68	1291.71
298.94	1238.64
299.21	1264.50
299.47	1275.86
299.74	1278.00
300.01	1222.07
300.27	1251.86
300.54	1260.57
300.80	1258.71
301.07	1209.64
301.33	1232.29
301.60	1252.07
301.87	1270.00
302.13	1229.00
302.40	1274.93
302.66	1291.79
302.93	1289.29
303.19	1248.64
303.46	1285.21
303.73	1292.71
303.99	1293.93
304.26	1237.50
304.52	1265.71
304.79	1286.50
305.05	1297.64
305.32	1253.71
305.59	1297.57
305.85	1320.07
306.12	1332.29
306.38	1298.21
306.65	1334.93
306.91	1344.64
307.18	1340.43
307.45	1278.29
307.71	1288.00
307.98	1281.71
308.24	1277.57
308.51	1238.21
308.77	1271.00
309.04	1280.93
309.30	1292.36
309.57	1260.00
309.84	1302.43
310.10	1320.50
310.37	1330.57
310.63	1271.86
310.90	1314.36
311.16	1333.21
311.43	1338.50
311.69	1285.00
311.96	1300.07
312.23	1280.79
312.49	1293.93
312.76	1245.29
313.02	1251.86
313.29	1256.36
313.55	1263.21
313.82	1217.86
314.08	1259.50
314.35	1270.07
314.61	1279.50
314.88	1265.00
315.14	1299.36
315.41	1304.14
315.68	1325.79
315.94	1286.36
316.21	1310.71
316.47	1318.71
316.74	1305.29
317.00	1263.29
317.27	1292.64
317.53	1298.93
317.80	1319.43
318.06	1280.14
318.33	1301.93
318.59	1315.93
318.86	1321.43
319.12	1282.71
319.39	1310.00
319.65	1301.00
319.92	1306.43
320.19	1264.29
320.45	1290.64
320.72	1305.14
320.98	1317.86
321.25	1268.07
321.51	1289.71
321.78	1297.86
322.04	1296.86
322.31	1242.71
322.57	1255.93
322.84	1260.64
323.10	1271.50
323.37	1241.71
323.63	1273.64
323.90	1292.93
324.16	1315.64
324.43	1267.29
324.69	1276.21
324.96	1280.14
325.22	1288.36
325.49	1241.00
325.75	1255.29
326.02	1244.64
326.28	1256.79
326.55	1229.43
326.81	1254.36
327.08	1266.21
327.34	1284.93
327.61	1249.43
327.87	1286.64
328.14	1297.14
328.40	1306.71
328.67	1261.93
328.93	1275.50
329.20	1282.50
329.46	1290.29
329.73	1244.93
329.99	1272.36
330.26	1273.57
330.52	1283.86
330.79	1248.86
331.05	1266.14
331.32	1275.93
331.58	1286.43
331.85	1247.00
332.11	1285.00
332.38	1301.86
332.64	1325.07
332.91	1285.64
333.17	1300.07
333.43	1310.43
333.70	1322.64
333.96	1272.50
334.23	1289.79
334.49	1282.43
334.76	1301.86
335.02	1271.14
335.29	1291.50
335.55	1285.71
335.82	1292.43
336.08	1251.00
336.35	1267.36
336.61	1251.50
336.88	1253.71
337.14	1213.29
337.41	1245.14
337.67	1266.50
337.93	1288.50
338.20	1257.79
338.46	1282.57
338.73	1289.43
338.99	1301.71
339.26	1264.07
339.52	1277.00
339.79	1272.29
340.05	1276.29
340.32	1248.00
340.58	1281.57
340.85	1292.64
341.11	1310.86
341.37	1275.79
341.64	1295.29
341.90	1303.07
342.17	1327.14
342.43	1290.93
342.70	1314.14
342.96	1306.07
343.23	1305.00
343.49	1257.14
343.75	1283.07
344.02	1273.93
344.28	1283.71
344.55	1243.71
344.81	1265.07
345.08	1277.14
345.34	1300.43
345.61	1264.14
345.87	1292.93
346.13	1298.07
346.40	1316.21
346.66	1291.29
346.93	1325.71
347.19	1329.43
347.46	1330.79
347.72	1275.21
347.98	1299.64
348.25	1308.64
348.51	1333.29
348.78	1298.57
349.04	1329.86
349.31	1338.64
349.57	1361.93
349.83	1313.36
350.10	1322.07
350.36	1302.07
350.63	1295.50
350.89	1252.93
351.16	1263.50
351.42	1261.79
351.68	1280.29
351.95	1241.43
352.21	1253.57
352.48	1243.50
352.74	1245.93
353.00	1222.00
353.27	1244.86
353.53	1239.14
353.80	1263.21
354.06	1244.29
354.33	1295.64
354.59	1316.86
354.85	1336.57
355.12	1311.71
355.38	1334.43
355.65	1331.71
355.91	1342.36
356.17	1294.07
356.44	1306.36
356.70	1297.07
356.97	1311.07
357.23	1300.64
357.49	1337.79
357.76	1337.29
358.02	1351.64
358.29	1318.57
358.55	1337.21
358.81	1331.50
359.08	1308.64
359.34	1248.07
359.61	1271.00
359.87	1266.79
360.13	1271.71
360.40	1244.43
360.66	1250.29
360.92	1253.64
361.19	1268.64
361.45	1223.29
361.72	1240.64
361.98	1249.50
362.24	1261.43
362.51	1227.07
362.77	1244.64
363.04	1251.71
363.30	1281.29
363.56	1254.36
363.83	1263.36
364.09	1258.21
364.35	1288.93
364.62	1276.14
364.88	1295.64
365.15	1289.21
365.41	1304.93
365.67	1281.79
365.94	1306.14
366.20	1295.14
366.46	1297.79
366.73	1262.21
366.99	1281.50
367.26	1287.36
367.52	1315.93
367.78	1289.36
368.05	1317.71
368.31	1321.07
368.57	1346.21
368.84	1311.50
369.10	1313.00
369.36	1294.71
369.63	1305.29
369.89	1273.07
370.16	1295.14
370.42	1286.79
370.68	1309.79
370.95	1271.79
371.21	1278.93
371.47	1277.43
371.74	1296.36
372.00	1267.93
372.26	1284.14
372.53	1272.29
372.79	1316.07
373.05	1301.79
373.32	1319.29
373.58	1302.71
373.84	1310.43
374.11	1270.50
374.37	1287.43
374.63	1268.21
374.90	1287.71
375.16	1262.36
375.43	1282.36
375.69	1277.57
375.95	1301.14
376.22	1272.07
376.48	1302.36
376.74	1291.21
377.01	1305.86
377.27	1279.79
377.53	1307.43
377.80	1313.93
378.06	1354.00
378.32	1324.93
378.59	1349.21
378.85	1334.29
379.11	1351.00
379.38	1311.64
379.64	1308.00
379.90	1274.86
380.16	1258.14
380.43	1228.64
380.69	1256.64
380.95	1247.71
381.22	1265.14
381.48	1235.43
381.74	1249.71
382.01	1261.71
382.27	1276.64
382.53	1236.71
382.80	1266.21
383.06	1258.00
383.32	1273.79
383.59	1257.50
383.85	1293.71
384.11	1291.00
384.38	1302.21
384.64	1262.43
384.90	1283.00
385.17	1298.71
385.43	1306.36
385.69	1258.14
385.95	1271.71
386.22	1276.50
386.48	1297.21
386.74	1262.64
387.01	1270.64
387.27	1277.36
387.53	1297.86
387.80	1270.00
388.06	1283.79
388.32	1284.86
388.58	1314.71
388.85	1280.07
389.11	1281.36
389.37	1270.07
389.64	1272.00
389.90	1244.86
390.16	1246.79
390.42	1239.57
390.69	1267.50
390.95	1244.71
391.21	1286.79
391.48	1308.71
391.74	1328.43
392.00	1303.36
392.26	1313.07
392.53	1292.71
392.79	1300.57
393.05	1242.21
393.32	1242.43
393.58	1244.36
393.84	1254.71
394.10	1212.50
394.37	1227.14
394.63	1225.36
394.89	1243.00
395.16	1210.07
395.42	1210.00
395.68	1208.21
395.94	1245.86
396.21	1244.29
396.47	1274.14
396.73	1281.71
396.99	1312.93
397.26	1298.00
397.52	1331.29
397.78	1326.21
398.05	1319.57
398.31	1288.57
398.57	1307.14
398.83	1297.93
399.10	1296.79
399.36	1251.43
399.62	1258.71
399.88	1256.93
400.15	1270.00
400.41	1235.43
400.67	1252.86
400.93	1270.00
401.20	1312.43
401.46	1292.71
401.72	1317.00
401.98	1315.93
402.25	1327.64
402.51	1294.14
402.77	1312.64
403.03	1286.29
403.30	1293.21
403.56	1255.86
403.82	1267.14
404.08	1261.79
404.35	1269.50
404.61	1220.79
404.87	1244.21
405.13	1250.50
405.40	1278.29
405.66	1258.00
405.92	1282.36
406.18	1280.07
406.45	1301.64
406.71	1273.57
406.97	1307.79
407.23	1313.36
407.50	1333.86
407.76	1311.07
408.02	1333.57
408.28	1333.36
408.54	1344.00
408.81	1302.21
409.07	1308.36
409.33	1293.29
409.59	1299.64
409.86	1263.64
410.12	1292.21
410.38	1286.50
410.64	1290.21
410.90	1260.71
411.17	1291.79
411.43	1290.00
411.69	1299.29
411.95	1254.71
412.22	1280.29
412.48	1281.50
412.74	1288.79
413.00	1243.86
413.26	1273.50
413.53	1287.79
413.79	1317.64
414.05	1288.21
414.31	1318.21
414.57	1317.50
414.84	1315.57
415.10	1265.93
415.36	1283.93
415.62	1264.93
415.89	1253.00
416.15	1209.79
416.41	1237.14
416.67	1259.57
416.93	1287.86
417.20	1262.14
417.46	1297.21
417.72	1321.79
417.98	1334.79
418.24	1285.36
418.51	1283.07
418.77	1273.50
419.03	1272.14
419.29	1218.07
419.55	1234.07
419.81	1229.21
420.08	1247.43
420.34	1231.21
420.60	1240.64
420.86	1247.79
421.12	1269.71
421.39	1229.93
421.65	1250.71
421.91	1259.71
422.17	1281.64
422.43	1259.14
422.70	1273.21
422.96	1271.79
423.22	1292.79
423.48	1265.14
423.74	1280.14
424.00	1266.07
424.27	1282.14
424.53	1251.00
424.79	1282.14
425.05	1278.93
425.31	1282.36
425.58	1247.79
425.84	1279.00
426.10	1273.86
426.36	1286.14
426.62	1241.71
426.88	1259.50
427.15	1267.86
427.41	1286.36
427.67	1241.50
427.93	1272.57
428.19	1271.93
428.45	1286.93
428.72	1263.86
428.98	1290.36
429.24	1291.79
429.50	1314.36
429.76	1286.21
430.02	1314.07
430.28	1313.07
430.55	1327.43
430.81	1298.64
431.07	1317.50
431.33	1309.79
431.59	1307.21
431.85	1263.29
432.12	1289.71
432.38	1272.57
432.64	1256.07
432.90	1213.43
433.16	1236.07
433.42	1244.43
433.68	1267.71
433.95	1233.64
434.21	1269.21
434.47	1294.64
434.73	1315.50
434.99	1290.36
435.25	1319.14
435.51	1304.71
435.78	1313.79
436.04	1272.07
436.30	1283.36
436.56	1290.43
436.82	1292.00
437.08	1232.71
437.34	1241.21
437.60	1240.50
437.87	1266.00
438.13	1226.00
438.39	1234.21
438.65	1231.43
438.91	1239.79
439.17	1215.50
439.43	1237.86
439.70	1232.93
439.96	1252.57
440.22	1213.14
440.48	1235.93
440.74	1247.29
441.00	1257.14
441.26	1214.50
441.52	1228.21
441.78	1231.43
442.05	1255.93
442.31	1220.93
442.57	1234.50
442.83	1246.50
443.09	1267.29
443.35	1237.57
443.61	1258.29
443.87	1262.50
444.14	1281.36
444.40	1252.43
444.66	1266.43
444.92	1262.21
445.18	1262.07
445.44	1225.00
445.70	1232.79
445.96	1225.07
446.22	1239.86
446.48	1216.14
446.75	1239.43
447.01	1258.36
447.27	1291.36
447.53	1273.79
447.79	1294.00
448.05	1285.79
448.31	1282.71
448.57	1245.21
448.83	1260.14
449.09	1245.79
449.36	1248.79
449.62	1228.21
449.88	1266.50
450.14	1282.29
450.40	1291.07
450.66	1245.29
450.92	1252.64
451.18	1261.21
451.44	1260.57
451.70	1227.00
451.96	1254.50
452.22	1266.43
452.49	1274.57
452.75	1240.43
453.01	1257.14
453.27	1273.71
453.53	1288.86
453.79	1256.00
454.05	1276.64
454.31	1277.57
454.57	1285.07
454.83	1246.57
455.09	1263.64
455.35	1250.29
455.61	1241.57
455.88	1194.21
456.14	1218.50
456.40	1224.57
456.66	1227.07
456.92	1180.86
457.18	1213.00
457.44	1226.14
457.70	1246.93
457.96	1219.93
458.22	1253.07
458.48	1269.14
458.74	1295.00
459.00	1250.79
459.26	1262.86
459.52	1257.93
459.78	1281.14
460.05	1245.71
460.31	1259.07
460.57	1246.43
460.83	1254.21
461.09	1212.57
461.35	1230.07
461.61	1220.50
461.87	1227.36
462.13	1195.71
462.39	1222.14
462.65	1237.14
462.91	1256.50
463.17	1231.00
463.43	1246.79
463.69	1234.07
463.95	1236.36
464.21	1203.79
464.47	1221.93
464.73	1241.36
464.99	1260.00
465.25	1229.36
465.51	1264.86
465.77	1272.50
466.04	1283.43
466.30	1256.00
466.56	1268.14
466.82	1266.29
467.08	1263.86
467.34	1222.00
467.60	1247.21
467.86	1254.79
468.12	1257.57
468.38	1222.79
468.64	1228.07
468.90	1241.14
469.16	1265.07
469.42	1226.50
469.68	1231.64
469.94	1238.50
470.20	1258.79
470.46	1254.36
470.72	1272.29
470.98	1262.29
471.24	1277.86
471.50	1245.64
471.76	1248.00
472.02	1225.21
472.28	1212.86
472.54	1175.07
472.80	1199.50
473.06	1198.71
473.32	1214.93
473.58	1189.86
473.84	1212.64
474.10	1208.00
474.36	1212.79
474.62	1176.50
474.88	1199.86
475.14	1213.79
475.40	1233.86
475.66	1211.21
475.92	1245.43
476.18	1264.86
476.44	1272.21
476.70	1236.71
476.96	1250.00
477.22	1246.36
477.48	1241.07
477.74	1202.43
478.00	1215.21
478.26	1225.00
478.52	1234.21
478.78	1210.79
479.04	1243.21
479.30	1260.86
479.56	1268.29
479.82	1235.57
480.08	1263.71
480.34	1269.50
480.60	1264.50
480.86	1227.00
481.12	1246.71
481.38	1268.79
481.64	1293.00
481.90	1246.57
482.16	1243.71
482.42	1232.50
482.68	1220.14
482.94	1188.71
483.20	1206.29
483.46	1208.93
483.72	1224.57
483.98	1208.07
484.24	1246.36
484.50	1285.14
484.76	1321.57
485.02	1284.93
485.28	1303.79
485.54	1306.93
485.80	1324.21
486.05	1291.86
486.31	1294.64
486.57	1276.43
486.83	1288.50
487.09	1248.14
487.35	1270.50
487.61	1270.07
487.87	1284.07
488.13	1240.21
488.39	1250.43
488.65	1252.79
488.91	1279.36
489.17	1248.71
489.43	1262.14
489.69	1260.21
489.95	1272.86
490.21	1240.43
490.47	1255.79
490.73	1248.00
490.99	1254.21
491.25	1227.57
491.51	1247.07
491.76	1252.93
492.02	1265.57
492.28	1234.14
492.54	1250.57
492.80	1273.71
493.06	1309.93
493.32	1278.64
493.58	1310.57
493.84	1315.07
494.10	1318.29
494.36	1284.50
494.62	1291.43
494.88	1274.86
495.14	1283.43
495.40	1237.64
495.66	1256.29
495.91	1264.36
496.17	1264.29
496.43	1229.07
496.69	1245.00
496.95	1244.43
497.21	1249.64
497.47	1218.50
497.73	1236.93
497.99	1247.36
498.25	1251.79
498.51	1216.57
498.77	1239.93
499.03	1259.50
499.29	1255.86
499.54	1216.64
499.80	1231.07
500.06	1241.71
500.32	1255.43
500.58	1228.00
500.84	1242.43
501.10	1255.79
501.36	1267.36
501.62	1239.14
501.88	1257.43
502.14	1256.79
502.39	1258.36
502.65	1225.79
502.91	1247.43
503.17	1250.64
503.43	1249.36
503.69	1206.64
503.95	1221.71
504.21	1223.93
504.47	1229.64
504.73	1200.86
504.99	1223.43
505.24	1233.43
505.50	1240.36
505.76	1208.79
506.02	1235.64
506.28	1241.14
506.54	1243.29
506.80	1202.36
507.06	1223.00
507.32	1241.71
507.57	1258.43
507.83	1229.86
508.09	1265.79
508.35	1273.00
508.61	1284.07
508.87	1253.00
509.13	1267.43
509.39	1268.50
509.65	1258.86
509.90	1208.00
510.16	1224.00
510.42	1221.36
510.68	1218.64
510.94	1172.29
511.20	1190.57
511.46	1213.29
511.72	1230.43
511.97	1191.14
512.23	1224.50
512.49	1242.57
512.75	1268.14
